Date and Time:                Tue Apr 30 10:22:22.897 2024
Software Version:             4.30.30034.0
Unstabilized Temperature (C): -74.055
Model:                        DU970P_BVF
Data Type:                    Counts
Acquisition Mode:             Accumulate
Trigger Mode:                 Internal
Exposure Time (secs):         0.51067
Accumulate Cycle Time (secs): 0.51067
Frequency (Hz):               1.9582
Number of Accumulations:      50
Readout Mode:                 Full Vertical Binning
Horizontal binning:           1
Extended Dynamic Range:       off
Horizontally flipped:         false
Vertical Shift Speed (usecs): 9.68
Pixel Readout Rate (MHz):     1
Baseline Clamp:               ON
Clock Amplitude:              Normal
Output Amplifier:             Conventional
Serial Number:                21547
Pre-Amplifier Gain:           4x
Spurious Noise Filter Mode:   No Filter
Photon counted:               false
Data Averaging Filter Mode:   No Filter
SR193i:
Serial Number:                KY-3410
Wavelength (nm):              668.287
Grating Groove Density (l/mm):599.775
Grating Blaze:                650nm
Output Direct Slit Width (um): 260



552.68842	25604
552.81213	25392
552.93585	25528
553.05963	25632
553.18335	25457
553.30707	25182
553.43079	25223
553.55457	24810
553.67828	24815
553.802	24537
553.92572	24949
554.04944	24620
554.17322	24271
554.29694	24912
554.42065	24666
554.54437	24476
554.66815	24631
554.79187	24659
554.91559	24599
555.03931	24884
555.16309	24856
555.2868	24607
555.41052	24737
555.53424	24455
555.65802	24955
555.78174	24913
555.90546	25102
556.02917	25171
556.15295	25288
556.27667	25951
556.40039	25572
556.52411	26024
556.64789	26663
556.77161	26823
556.89532	26991
557.01904	26685
557.14282	26939
557.26654	26114
557.39026	26250
557.51398	26098
557.63776	26250
557.76147	26419
557.88519	26399
558.00891	26254
558.13269	26475
558.25641	26473
558.38013	26068
558.50385	25780
558.62762	25979
558.75134	25365
558.87506	25809
558.99878	25430
559.12256	25471
559.24628	25521
559.37	25578
559.49371	25241
559.61749	25003
559.74121	25269
559.86493	25441
559.98865	25807
560.11243	26051
560.23615	25835
560.35986	25617
560.48358	25651
560.6073	25864
560.73108	25854
560.8548	25902
560.97852	26126
561.10223	26629
561.22601	26350
561.34973	27033
561.47345	27084
561.59717	27095
561.72095	26812
561.84467	27140
561.96838	26617
562.0921	26616
562.21582	26540
562.3396	26200
562.46332	26846
562.58704	26376
562.71075	26407
562.83453	26308
562.95825	26421
563.08197	26291
563.20569	26377
563.32941	26867
563.45319	26972
563.5769	26790
563.70062	26845
563.82434	26591
563.94806	26748
564.07184	26669
564.19556	26943
564.31927	26999
564.44299	26904
564.56671	27450
564.69043	26957
564.81421	27489
564.93793	27699
565.06165	27892
565.18536	27879
565.30908	27597
565.4328	27396
565.55658	27143
565.6803	27325
565.80402	27084
565.92773	26743
566.05145	26956
566.17517	26651
566.29895	26640
566.42267	26399
566.54639	26751
566.6701	26682
566.79382	26647
566.91754	26025
567.04126	26409
567.16498	26296
567.28876	26364
567.41248	26230
567.53619	26098
567.65991	26163
567.78363	25886
567.90735	25916
568.03107	26050
568.15479	26137
568.2785	25938
568.40222	26233
568.52594	26185
568.64972	26179
568.77344	26024
568.89716	26382
569.02087	26358
569.14459	26546
569.26831	26397
569.39203	26511
569.51575	26572
569.63947	26579
569.76318	26269
569.8869	26797
570.01062	26865
570.13434	26824
570.25806	27124
570.38177	27159
570.50549	26877
570.62921	27043
570.75293	27055
570.87665	27036
571.00037	27232
571.12408	27107
571.2478	27539
571.37152	27534
571.49524	27248
571.61896	27396
571.74268	28001
571.86639	27638
571.99011	27689
572.11383	27848
572.23755	27957
572.36127	27934
572.48499	27967
572.6087	28071
572.73242	28098
572.85608	28553
572.9798	28711
573.10352	28736
573.22723	28498
573.35095	28804
573.47467	28372
573.59839	28913
573.72211	29028
573.84583	29372
573.96948	29550
574.0932	30054
574.21692	30450
574.34064	30560
574.46436	30541
574.58807	30953
574.71179	31276
574.83545	31102
574.95917	30732
575.08289	31266
575.2066	31323
575.33032	31355
575.45398	30942
575.5777	31270
575.70142	31018
575.82513	30716
575.94879	30772
576.07251	30879
576.19623	31091
576.31995	30645
576.4436	30264
576.56732	30093
576.69104	30614
576.81476	30852
576.93842	30538
577.06213	29697
577.18585	30383
577.30951	31048
577.43323	31064
577.55695	30720
577.6806	30519
577.80432	30157
577.92804	30498
578.0517	30662
578.17542	29979
578.29913	30023
578.42279	30204
578.54651	30371
578.67023	29904
578.79388	30076
578.9176	30125
579.04126	30159
579.16498	29993
579.28864	30184
579.41235	30203
579.53607	30141
579.65973	30348
579.78345	30124
579.9071	30046
580.03082	30295
580.15448	29577
580.2782	29983
580.40186	30186
580.52557	30212
580.64923	30920
580.77295	31029
580.89661	31400
581.02032	31421
581.14398	32154
581.2677	32214
581.39136	32200
581.51501	32513
581.63873	32150
581.76239	31684
581.88611	31791
582.00977	31432
582.13342	31340
582.25714	31196
582.3808	31016
582.50452	30501
582.62817	30719
582.75183	30080
582.87555	30147
582.99921	30084
583.12286	30534
583.24652	30544
583.37024	30231
583.4939	30654
583.61755	30307
583.74127	30703
583.86493	31552
583.98859	30917
584.11224	31217
584.23596	31480
584.35962	31869
584.48328	31832
584.60693	31587
584.73059	31926
584.85431	31343
584.97797	31443
585.10162	31400
585.22528	31392
585.34894	30925
585.4726	30696
585.59625	30428
585.71997	29892
585.84363	30238
585.96729	30593
586.09094	30733
586.2146	30517
586.33826	30423
586.46191	30778
586.58557	30035
586.70923	30717
586.83289	30810
586.95654	30855
587.0802	30940
587.20386	30873
587.32751	30725
587.45117	30914
587.57483	30476
587.69849	30419
587.82214	30391
587.9458	29481
588.06946	29790
588.19312	29669
588.31671	29771
588.44037	30167
588.56403	30112
588.68768	29852
588.81134	29718
588.935	29278
589.05865	29691
589.18225	29765
589.30591	30097
589.42957	29661
589.55322	30383
589.67688	29877
589.80048	29756
589.92413	30409
590.04779	30803
590.17139	30909
590.29504	30590
590.4187	30726
590.54236	31305
590.66595	31310
590.78961	31194
590.91327	31502
591.03687	31655
591.16052	31857
591.28412	31756
591.40778	31014
591.53143	31454
591.65503	31182
591.77869	31377
591.90228	31398
592.02594	31040
592.14954	30857
592.27319	31112
592.39679	30915
592.52045	31006
592.64404	31271
592.7677	31203
592.8913	31181
593.01495	31441
593.13855	30795
593.26221	30599
593.3858	30516
593.5094	30485
593.63306	30590
593.75665	30030
593.88031	30184
594.00391	30000
594.1275	30064
594.2511	30129
594.37476	29672
594.49835	30376
594.62195	30038
594.74561	30426
594.8692	30278
594.9928	30397
595.11639	30426
595.24005	30418
595.36365	30734
595.48724	30730
595.61084	30397
595.73444	30441
595.85803	30644
595.98163	30375
596.10529	30277
596.22888	30006
596.35248	30633
596.47607	30180
596.59967	30441
596.72327	30462
596.84686	30372
596.97046	30361
597.09406	30640
597.21765	30471
597.34125	30321
597.46484	30886
597.58844	30704
597.71204	30711
597.83563	30687
597.95923	30733
598.08282	31113
598.20636	31280
598.32996	31231
598.45355	30856
598.57715	31219
598.70074	31121
598.82434	31065
598.94788	31515
599.07147	31169
599.19507	30973
599.31866	31329
599.4422	30961
599.5658	30938
599.68939	31092
599.81293	31027
599.93652	31856
600.06012	31388
600.18365	31099
600.30725	31273
600.43085	31140
600.55438	31318
600.67798	30794
600.80151	31143
600.92511	31342
601.04865	31188
601.17224	31189
601.29578	31019
601.41937	31331
601.54291	31365
601.6665	31031
601.79004	31288
601.91364	30906
602.03717	31204
602.16071	31188
602.2843	31304
602.40784	31019
602.53137	30850
602.65497	31236
602.7785	30774
602.90204	30953
603.02563	30765
603.14917	30758
603.27271	30559
603.39624	30488
603.51984	30625
603.64337	30617
603.76691	30855
603.89044	30683
604.01398	30449
604.13751	30694
604.26111	30770
604.38464	30907
604.50818	30732
604.63171	30511
604.75525	30644
604.87878	31172
605.00232	30948
605.12585	31103
605.24939	31243
605.37292	31136
605.49646	30892
605.62	31448
605.74353	31256
605.867	30995
605.99054	30791
606.11407	31119
606.23761	31021
606.36115	31552
606.48468	31681
606.60815	32102
606.73169	31811
606.85522	32057
606.97876	32722
607.10223	32472
607.22577	33128
607.3493	33171
607.47278	34256
607.59631	34649
607.71985	34814
607.84332	35229
607.96686	35805
608.09033	35804
608.21387	36489
608.3374	36820
608.46088	35921
608.58441	35562
608.70789	35499
608.83142	35170
608.9549	34678
609.07837	34626
609.2019	34434
609.32538	34060
609.44891	33624
609.57239	33372
609.69586	32495
609.8194	32421
609.94287	32219
610.06635	32402
610.18982	31997
610.31335	32376
610.43683	31929
610.5603	31578
610.68378	31916
610.80725	32042
610.93079	32082
611.05426	31377
611.17773	31685
611.30121	31851
611.42468	31292
611.54816	31745
611.67163	31822
611.7951	32278
611.91858	32252
612.04205	31843
612.16553	32273
612.289	32259
612.41248	32368
612.53595	32482
612.65942	32307
612.7829	31837
612.90631	31585
613.02979	32221
613.15326	31853
613.27673	32251
613.40021	31887
613.52362	32393
613.64709	32119
613.77057	32193
613.89398	31331
614.01746	31708
614.14093	31460
614.26434	31700
614.38782	31467
614.51123	31037
614.6347	31167
614.75818	30657
614.88159	30436
615.00507	31262
615.12848	30824
615.25189	30675
615.37537	30875
615.49878	30819
615.62225	30803
615.74567	30831
615.86908	31345
615.99255	31202
616.11597	31080
616.23938	31243
616.36285	31253
616.48627	30992
616.60968	30758
616.73309	30531
616.85657	30824
616.97998	30956
617.10339	31174
617.22681	30577
617.35022	30510
617.47363	30752
617.59705	30830
617.72046	30675
617.84387	30997
617.96729	30905
618.0907	30507
618.21411	30617
618.33752	30850
618.46094	30934
618.58435	30738
618.70776	30531
618.83118	30500
618.95453	30147
619.07794	30106
619.20135	31010
619.32477	30747
619.44812	30072
619.57153	30826
619.69495	30457
619.8183	30382
619.94171	30551
620.06512	30048
620.18848	29903
620.31189	29223
620.43524	29559
620.55865	29827
620.68207	30314
620.80542	30279
620.92877	29370
621.05219	29799
621.17554	29823
621.29895	29534
621.4223	29695
621.54565	29551
621.66907	30005
621.79242	29670
621.91577	29956
622.03918	29974
622.16254	29959
622.28589	29795
622.40924	29841
622.53259	29645
622.65601	29813
622.77936	29566
622.90271	29384
623.02606	29457
623.14941	29654
623.27277	29923
623.39612	29561
623.51947	29642
623.64282	29702
623.76617	29356
623.88953	30093
624.01288	29743
624.13617	29672
624.25952	29821
624.38287	29954
624.50623	30010
624.62958	29918
624.75287	29687
624.87622	29600
624.99957	29486
625.12286	29044
625.24622	29090
625.36957	29304
625.49286	29464
625.61621	29446
625.7395	29456
625.86285	29697
625.98615	29528
626.1095	30404
626.23279	30141
626.35614	30263
626.47943	30146
626.60278	29873
626.72607	29698
626.84937	30058
626.97272	29993
627.09601	29112
627.2193	29620
627.34259	29627
627.46594	29632
627.58923	29474
627.71252	29209
627.83582	29197
627.95911	29232
628.0824	28747
628.20569	29199
628.32898	28903
628.45227	28826
628.57556	28838
628.69885	28683
628.82214	28709
628.94543	29192
629.06873	29168
629.19202	28850
629.31531	28794
629.43854	29076
629.56183	29178
629.68512	29268
629.80841	29298
629.93164	29603
630.05493	29436
630.17822	29151
630.30145	29048
630.42474	28669
630.54797	29082
630.67126	29071
630.79449	28572
630.91779	29016
631.04102	28766
631.16431	28676
631.28754	28439
631.41083	28746
631.53406	28294
631.65729	28576
631.78058	28554
631.90381	28624
632.02704	28610
632.15027	28837
632.27356	28862
632.39679	28293
632.52002	28354
632.64325	28534
632.76648	28804
632.88971	28813
633.01294	28893
633.13617	28651
633.2594	28880
633.38263	28378
633.50586	28632
633.62909	28854
633.75232	29024
633.87555	28946
633.99878	28854
634.12195	28755
634.24518	28796
634.36841	29003
634.49164	28765
634.61481	28462
634.73804	28705
634.86127	28573
634.98444	28396
635.10767	28409
635.23083	29029
635.35406	28710
635.47723	29100
635.60046	28692
635.72363	29007
635.84686	28321
635.97003	28318
636.0932	28613
636.21643	28763
636.3396	29021
636.46277	28755
636.58594	28750
636.70917	29148
636.83234	28796
636.95551	28205
637.07867	28516
637.20184	28739
637.32501	28500
637.44818	28082
637.57135	28155
637.69452	28181
637.81769	28055
637.94086	28570
638.06403	28456
638.18719	28638
638.31036	28669
638.43353	28464
638.55664	28320
638.67981	28004
638.80298	28077
638.92615	28239
639.04926	28014
639.17242	27992
639.29553	28151
639.4187	28779
639.54187	28061
639.66498	28569
639.78815	28838
639.91125	28598
640.03436	28518
640.15753	27887
640.28064	28015
640.40381	28361
640.52692	28372
640.65002	28379
640.77313	28268
640.8963	28745
641.01941	28456
641.14252	28646
641.26562	28395
641.38873	28281
641.51184	28616
641.63495	28433
641.75806	28632
641.88116	28534
642.00427	28547
642.12738	28117
642.25049	28744
642.3736	28761
642.4967	28626
642.61981	28333
642.74286	28146
642.86597	28718
642.98907	28834
643.11218	28505
643.23523	28560
643.35834	28695
643.48138	27907
643.60449	27994
643.7276	28896
643.85065	28833
643.97369	28448
644.0968	28516
644.21985	28341
644.34296	28678
644.466	28377
644.58905	28969
644.71216	28938
644.83521	28771
644.95825	29267
645.0813	29549
645.20435	29466
645.32745	29701
645.4505	30354
645.57355	30158
645.69659	30164
645.81964	30614
645.94269	30803
646.06573	30958
646.18878	30842
646.31177	31302
646.43481	30938
646.55786	31307
646.68091	31562
646.80396	31702
646.92694	31698
647.04999	31770
647.17303	32120
647.29602	31535
647.41907	31555
647.54205	31534
647.6651	31384
647.78809	30785
647.91113	31050
648.03412	31038
648.15717	31080
648.28015	30526
648.40314	30430
648.52618	30693
648.64917	30354
648.77216	29735
648.89514	28804
649.01819	28751
649.14117	28301
649.26416	28634
649.38715	28538
649.51013	28629
649.63312	28747
649.7561	28887
649.87909	28120
650.00208	28090
650.12506	28322
650.24799	28358
650.37097	28195
650.49396	28264
650.61694	28553
650.73987	28101
650.86285	28203
650.98584	27648
651.10876	27805
651.23175	27584
651.35474	27333
651.47766	27231
651.60059	27689
651.72357	27762
651.8465	27798
651.96948	27621
652.09241	27261
652.21533	27312
652.33832	27117
652.46124	27363
652.58417	27552
652.70709	27531
652.83002	27878
652.95294	27572
653.07593	27590
653.19885	27589
653.32178	27376
653.44464	27627
653.56757	27982
653.69049	27475
653.81342	27490
653.93634	27751
654.05927	27746
654.18219	28185
654.30505	28071
654.42798	28135
654.5509	27544
654.67377	27446
654.79669	27495
654.91956	27736
655.04248	27661
655.16534	27634
655.28827	27733
655.41113	27652
655.53406	27392
655.65692	27594
655.77979	27609
655.90271	27571
656.02557	27440
656.14844	28040
656.2713	28119
656.39417	28270
656.51703	28087
656.63989	28460
656.76276	28592
656.88562	28675
657.00848	28402
657.13135	28212
657.25421	28770
657.37708	28741
657.49994	28405
657.6228	28108
657.74561	28530
657.86847	28574
657.99133	28723
658.11414	28933
658.237	28954
658.3598	28636
658.48267	28633
658.60547	28574
658.72833	28616
658.85114	28319
658.974	28171
659.0968	28262
659.2196	28622
659.34247	28098
659.46527	28078
659.58807	27861
659.71088	27750
659.83368	27922
659.95648	28130
660.07928	28134
660.20209	27612
660.32489	27647
660.44769	27669
660.5705	28089
660.6933	27185
660.8161	27606
660.9389	27745
661.06171	27663
661.18445	27442
661.30725	27738
661.43005	27763
661.5528	27553
661.6756	27944
661.79834	28008
661.92114	27954
662.04388	27602
662.16669	27610
662.28943	27606
662.41217	27649
662.53497	27458
662.65771	27560
662.78046	27859
662.9032	27298
663.026	27603
663.14874	27183
663.27148	27474
663.39423	27202
663.51697	27407
663.63971	27336
663.76245	27669
663.88519	27383
664.00793	27137
664.13062	26987
664.25336	27514
664.3761	27281
664.49884	27315
664.62152	27243
664.74426	27510
664.86694	27088
664.98969	27004
665.11243	27151
665.23511	27168
665.35779	27150
665.48053	27536
665.60321	27351
665.72589	27139
665.84863	27292
665.97131	27453
666.09399	27870
666.21667	27770
666.33942	27601
666.4621	27421
666.58478	27570
666.70746	27820
666.83014	27764
666.95282	27881
667.07544	27776
667.19812	27665
667.3208	27360
667.44348	27397
667.56616	27966
667.68878	27783
667.81146	27563
667.93414	27818
668.05676	27644
668.17944	27171
668.30206	27106
668.42474	27281
668.54736	27378
668.66998	27571
668.79266	27217
668.91528	27233
669.0379	27282
669.16058	27165
669.2832	27453
669.40582	27108
669.52844	26770
669.65106	26753
669.77368	26962
669.8963	26669
670.01892	26543
670.14154	27002
670.26416	26976
670.38678	26987
670.50934	26652
670.63196	26836
670.75458	26871
670.87714	26838
670.99976	26772
671.12238	27329
671.24493	26371
671.36755	26684
671.49011	26746
671.61273	26802
671.73529	26749
671.85785	27091
671.98047	26720
672.10303	27193
672.22559	26514
672.34814	26683
672.4707	26444
672.59326	26331
672.71582	26559
672.83838	26196
672.96094	26383
673.0835	26324
673.20605	26352
673.32861	26547
673.45117	26400
673.57373	26152
673.69623	26083
673.81879	26190
673.94135	26157
674.06384	26026
674.1864	26075
674.3089	26217
674.43146	26548
674.55396	26247
674.67651	25944
674.79901	26331
674.92151	26232
675.04401	26139
675.16656	25688
675.28906	25762
675.41156	25459
675.53406	25496
675.65656	25462
675.77905	25567
675.90155	25485
676.02405	25586
676.14655	25690
676.26904	25638
676.39154	25223
676.51398	25188
676.63647	25166
676.75897	25629
676.88141	25606
677.00391	25584
677.12634	25533
677.24884	25455
677.37128	25447
677.49377	25460
677.61621	25103
677.73865	25471
677.86115	25311
677.98358	25233
678.10602	25389
678.22845	25241
678.35089	25042
678.47333	24936
678.59576	25279
678.7182	24716
678.84064	24996
678.96307	24403
679.08551	24702
679.20795	24684
679.33038	24731
679.45276	24653
679.5752	24659
679.69763	24633
679.82001	24904
679.94244	24621
680.06482	24851
680.18726	24851
680.30963	24784
680.43207	24646
680.55444	24445
680.67682	24772
680.79919	24519
680.92163	24615
681.04401	24515
681.16638	24436
681.28876	24356
681.41113	24367
681.53351	24053
681.65588	23664
681.77826	23938
681.90057	23826
682.02295	24001
682.14532	24029
682.2677	24032
682.39001	23961
682.51239	23794
682.63477	24002
682.75708	24130
682.87946	24147
683.00177	23985
683.12408	23736
683.24646	23798
683.36877	23711
683.49109	23691
683.61346	23699
683.73578	23825
683.85809	23872
683.98041	23916
684.10272	23922
684.22504	23939
684.34735	23688
684.46967	23695
684.59198	23654
684.71423	23857
684.83655	23670
684.95886	23365
685.08112	23425
685.20343	23364
685.32574	23568
685.448	23257
685.57031	23550
685.69257	23322
685.81488	23479
685.93713	23388
686.05939	23357
686.18164	23534
686.30396	23294
686.42621	23324
686.54846	23327
686.67072	23206
686.79297	23334
686.91522	23306
687.03748	23523
687.15973	23330
687.28198	23110
687.40417	23216
687.52643	23186
687.64868	23014
687.77094	23485
687.89313	23561
688.01538	23185
688.13757	23369
688.25983	23150
688.38202	23088
688.50421	23144
688.62646	23217
688.74866	23082
688.87085	23096
688.99304	23204
689.1153	23219
689.23749	23010
689.35968	23179
689.48187	23149
689.60406	23054
689.72626	22868
689.84839	22912
689.97058	22906
690.09277	22876
690.21497	22786
690.3371	22837
690.45929	23037
690.58148	22860
690.70361	22864
690.82581	22959
690.94794	22709
691.07007	22843
691.19226	23197
691.31439	22764
691.43652	22984
691.55865	22544
691.68085	22473
691.80298	22712
691.92511	22450
692.04724	22877
692.16937	22443
692.29144	22550
692.41357	22517
692.53571	22484
692.65784	22514
692.77997	22363
692.90204	22719
693.02417	22564
693.14624	22382
693.26837	22478
693.39044	22972
693.51257	22597
693.63464	22780
693.75677	22334
693.87885	22511
694.00092	22389
694.12299	22266
694.24506	22679
694.36713	22442
694.4892	22107
694.61127	22326
694.73334	22280
694.85541	22492
694.97748	22320
695.09955	22258
695.22156	22163
695.34363	22452
695.4657	22074
695.58771	22271
695.70978	22225
695.83179	22042
695.95386	22013
696.07587	21985
696.19794	21980
696.31995	22008
696.44196	22325
696.56396	21835
696.68597	22211
696.80798	21679
696.93005	22160
697.052	21810
697.17401	21987
697.29602	21803
697.41803	21880
697.54004	21971
697.66205	22086
697.784	21737
697.90601	22032
698.02802	21938
698.14996	22017
698.27197	21879
698.39392	21941
698.51587	22191
698.63788	21880
698.75983	22015
698.88177	21915
699.00372	21954
699.12573	21664
699.24768	21968
699.36963	21757
699.49158	21702
699.61353	21981
699.73541	21724
699.85736	21871
699.97931	21854
700.10126	21587
700.22314	21581
700.34509	21832
700.46704	21496
700.58893	21813
700.71088	21591
700.83276	21797
700.95465	21871
701.0766	21715
701.19849	21794
701.32037	21686
701.44226	21637
701.56415	21774
701.6861	21788
701.80798	21594
701.92981	21637
702.0517	21949
702.17358	21541
702.29547	21546
702.41736	21581
702.53918	21616
702.66107	21638
702.78296	21355
702.90479	21499
703.02667	21204
703.1485	21517
703.27039	20920
703.39221	21141
703.51404	21284
703.63586	21068
703.75775	21382
703.87958	21561
704.0014	21462
704.12323	21426
704.24506	21186
704.36688	21198
704.48865	21272
704.61047	21395
704.7323	21337
704.85413	21312
704.97589	21366
705.09772	21437
705.21954	21200
705.34131	21441
705.46307	21459
705.5849	21093
705.70667	21213
705.82843	21415
705.95026	21184
706.07202	20924
706.19379	20951
706.31555	20784
706.43732	21056
706.55908	20956
706.68085	20987
706.80261	20865
706.92438	21135
707.04608	21093
707.16785	21177
707.28961	20937
707.41132	20935
707.53308	21026
707.65479	20929
707.77655	20907
707.89825	21005
708.01996	20858
708.14172	20803
708.26343	20989
708.38513	21062
708.50684	20825
708.62854	20810
708.75024	20809
708.87195	20823
708.99365	20891
709.11536	20997
709.237	20824
709.3587	20804
709.48041	20825
709.60205	20697
709.72375	20902
709.8454	20753
709.9671	21142
710.08875	20820
710.21045	20966
710.33209	20693
710.45374	20703
710.57538	20884
710.69702	20654
710.81873	20695
710.94037	20588
711.06195	20702
711.18359	20496
711.30524	20785
711.42688	20618
711.54852	20667
711.6701	20533
711.79175	20578
711.91339	20746
712.03497	20549
712.15662	20317
712.2782	20851
712.39978	20887
712.52142	20909
712.64301	20624
712.76459	20589
712.88617	20607
713.00775	20362
713.12933	20302
713.25092	20265
713.3725	20342
713.49408	20426
713.61566	20390
713.73718	20466
713.85876	20776
713.98035	20604
714.10187	20771
714.22345	20686
714.34497	20893
714.46655	21049
714.58807	20625
714.70959	20844
714.83118	20575
714.9527	20955
715.07422	20918
715.19574	20894
715.31726	20903
715.43878	20929
715.5603	20857
715.68182	20718
715.80328	20950
715.9248	20897
716.04633	20899
716.16779	20764
716.28931	20727
716.41077	20810
716.53229	20821
716.65375	20814
716.77521	20768
716.89673	20917
717.01819	20893
717.13965	21015
717.26111	21030
717.38257	21030
717.50403	20963
717.62549	20984
717.74695	20952
717.86841	20546
717.98987	20724
718.11127	20593
718.23273	20838
718.35413	20980
718.47559	20752
718.59698	20542
718.71844	20784
718.83984	20763
718.96124	20778
719.0827	20937
719.2041	20805
719.3255	20873
719.4469	21006
719.5683	20739
719.6897	20838
719.8111	20922
719.9325	20899
720.05383	20826
720.17523	20761
720.29663	20652
720.41797	20689
720.53937	20686
720.66071	20609
720.7821	20658
720.90344	20770
721.02478	20650
721.14618	20419
721.26752	20843
721.38885	20555
721.51019	20417
721.63153	20511
721.75287	20431
721.87421	20926
721.99554	20511
722.11682	20585
722.23816	20663
722.3595	20447
722.48077	20724
722.60211	20389
722.72339	20521
722.84473	20162
722.966	20218
723.08728	20411
723.20862	20498
723.3299	20254
723.45117	20422
723.57245	20217
723.69373	20386
723.815	20199
723.93628	20189
724.05756	20402
724.17877	20228
724.30005	20299
724.42133	20313
724.54254	20208
724.66382	20343
724.78503	20336
724.90631	20359
725.02753	20289
725.14874	20120
725.26996	20261
725.39124	20206
725.51245	20104
725.63367	20002
725.75488	20274
725.8761	20157
725.99731	20125
726.11847	19930
726.23969	20157
726.3609	19793
726.48206	19913
726.60327	20004
726.72443	19896
726.84564	20116
726.9668	19741
727.08795	20143
727.20917	19806
727.33032	19892
727.45148	19771
727.57263	19570
727.69379	19889
727.81494	19645
727.9361	19409
728.05725	19633
728.17841	19590
728.2995	19556
728.42065	19615
728.54175	19442
728.6629	19588
728.784	19685
728.90515	19499
729.02625	19552
729.14734	19432
729.26849	19529
729.38959	19306
729.51068	19146
729.63177	19323
729.75287	19229
729.87396	19254
729.99506	19096
730.11609	19190
730.23718	19328
730.35828	18941
730.47931	19002
730.6004	19167
730.72144	19097
730.84253	19095
730.96356	19063
731.08459	18991
731.20569	19144
731.32672	19150
731.44775	18931
731.56879	18838
731.68982	18918
731.81085	18864
731.93188	18932
732.05286	18737
732.17389	18834
732.29492	18817
732.41589	18687
732.53693	18725
732.6579	19049
732.77893	18896
732.8999	18990
733.02087	18849
733.14191	18835
733.26288	18792
733.38385	18751
733.50482	18906
733.62579	18606
733.74677	18741
733.86774	18669
733.98865	18544
734.10962	18711
734.23059	18803
734.3515	18714
734.47247	18706
734.59338	18648
734.71436	18761
734.83527	18847
734.95618	18723
735.07709	18617
735.19806	18646
735.31897	18527
735.43988	18712
735.56079	18553
735.68164	18388
735.80255	18433
735.92346	18536
736.04437	18655
736.16522	18444
736.28613	18669
736.40698	18480
736.52789	18344
736.64874	18489
736.76959	18440
736.8905	18511
737.01135	18564
737.1322	18389
737.25305	18613
737.3739	18527
737.49475	18688
737.6156	18607
737.73645	18523
737.85724	18599
737.97809	18510
738.09894	18579
738.21973	18734
738.34058	18515
738.46136	18665
738.58215	18641
738.703	18486
738.82379	18821
738.94458	18675
739.06537	18762
739.18616	18690
739.30695	18630
739.42773	18749
739.54852	18535
739.66925	18860
739.79004	18769
739.91083	18912
740.03156	18847
740.15234	18741
740.27307	18554
740.39386	18493
740.51459	18566
740.63531	18546
740.75604	18289
740.87677	18173
740.9975	18304
741.11823	18209
741.23895	18141
741.35968	18062
741.48041	17952
741.60107	17908
741.7218	17925
741.84253	17953
741.9632	17985
742.08392	17973
742.20459	18087
742.32526	17967
742.44592	17940
742.56665	17817
742.68732	17947
742.80798	17965
742.92865	18056
743.04932	17895
743.16992	18115
743.29059	18122
743.41125	17985
743.53192	18276
743.65253	18232
743.77319	18174
743.8938	18152
744.0144	18174
744.13507	18099
744.25568	18060
744.37628	18159
744.49689	17990
744.61749	17966
744.7381	17889
744.8587	17805
744.97931	17788
745.09991	17899
745.22046	17872
745.34106	17800
745.46167	17774
745.58221	17844
745.70276	17773
745.82336	17766
745.94391	17842
746.06445	17841
746.185	17812
746.3056	17939
746.42615	17801
746.54669	17728
746.66718	17890
746.78772	17835
746.90826	17567
747.02881	17850
747.14929	17490
747.26984	17768
747.39032	17550
747.51086	17717
747.63135	17715
747.75183	17837
747.87231	17664
747.99286	17514
748.11334	17624
748.23383	17718
748.35431	17565
748.47473	17681
748.59521	17433
748.7157	17864
748.83618	17728
