Date and Time:                Tue Apr 30 10:25:28.955 2024
Software Version:             4.30.30034.0
Unstabilized Temperature (C): -74.055
Model:                        DU970P_BVF
Data Type:                    Counts
Acquisition Mode:             Single Scan
Trigger Mode:                 Internal
Exposure Time (secs):         0.51067
Readout Mode:                 Full Vertical Binning
Horizontal binning:           1
Extended Dynamic Range:       off
Horizontally flipped:         false
Vertical Shift Speed (usecs): 9.68
Pixel Readout Rate (MHz):     1
Baseline Clamp:               ON
Clock Amplitude:              Normal
Output Amplifier:             Conventional
Serial Number:                21547
Pre-Amplifier Gain:           4x
Spurious Noise Filter Mode:   No Filter
Photon counted:               false
Data Averaging Filter Mode:   No Filter
SR193i:
Serial Number:                KY-3410
Wavelength (nm):              668.287
Grating Groove Density (l/mm):599.775
Grating Blaze:                650nm
Output Direct Slit Width (um): 260



552.68842	472
552.81213	511
552.93585	515
553.05963	493
553.18335	492
553.30707	476
553.43079	502
553.55457	526
553.67828	510
553.802	476
553.92572	522
554.04944	520
554.17322	527
554.29694	492
554.42065	511
554.54437	508
554.66815	467
554.79187	511
554.91559	490
555.03931	509
555.16309	492
555.2868	505
555.41052	484
555.53424	490
555.65802	514
555.78174	523
555.90546	497
556.02917	499
556.15295	521
556.27667	527
556.40039	562
556.52411	554
556.64789	561
556.77161	517
556.89532	571
557.01904	551
557.14282	567
557.26654	504
557.39026	525
557.51398	486
557.63776	506
557.76147	524
557.88519	524
558.00891	518
558.13269	503
558.25641	525
558.38013	532
558.50385	511
558.62762	529
558.75134	515
558.87506	557
558.99878	490
559.12256	515
559.24628	535
559.37	531
559.49371	509
559.61749	502
559.74121	518
559.86493	523
559.98865	540
560.11243	523
560.23615	543
560.35986	554
560.48358	520
560.6073	521
560.73108	539
560.8548	529
560.97852	530
561.10223	538
561.22601	525
561.34973	552
561.47345	561
561.59717	553
561.72095	534
561.84467	563
561.96838	544
562.0921	540
562.21582	538
562.3396	556
562.46332	570
562.58704	538
562.71075	534
562.83453	532
562.95825	503
563.08197	564
563.20569	515
563.32941	516
563.45319	511
563.5769	558
563.70062	574
563.82434	532
563.94806	565
564.07184	563
564.19556	543
564.31927	572
564.44299	557
564.56671	532
564.69043	555
564.81421	569
564.93793	557
565.06165	572
565.18536	544
565.30908	561
565.4328	561
565.55658	560
565.6803	585
565.80402	547
565.92773	558
566.05145	551
566.17517	546
566.29895	543
566.42267	549
566.54639	568
566.6701	546
566.79382	564
566.91754	556
567.04126	578
567.16498	508
567.28876	532
567.41248	545
567.53619	528
567.65991	519
567.78363	527
567.90735	504
568.03107	522
568.15479	492
568.2785	524
568.40222	524
568.52594	507
568.64972	533
568.77344	521
568.89716	520
569.02087	531
569.14459	547
569.26831	533
569.39203	540
569.51575	578
569.63947	546
569.76318	531
569.8869	537
570.01062	595
570.13434	550
570.25806	571
570.38177	585
570.50549	558
570.62921	520
570.75293	550
570.87665	586
571.00037	551
571.12408	549
571.2478	567
571.37152	544
571.49524	554
571.61896	573
571.74268	562
571.86639	532
571.99011	566
572.11383	560
572.23755	563
572.36127	582
572.48499	578
572.6087	585
572.73242	585
572.85608	580
572.9798	560
573.10352	628
573.22723	610
573.35095	608
573.47467	606
573.59839	573
573.72211	526
573.84583	651
573.96948	619
574.0932	641
574.21692	618
574.34064	572
574.46436	632
574.58807	626
574.71179	626
574.83545	661
574.95917	668
575.08289	639
575.2066	654
575.33032	643
575.45398	608
575.5777	625
575.70142	627
575.82513	669
575.94879	634
576.07251	609
576.19623	663
576.31995	637
576.4436	613
576.56732	577
576.69104	589
576.81476	596
576.93842	622
577.06213	600
577.18585	600
577.30951	608
577.43323	674
577.55695	686
577.6806	672
577.80432	599
577.92804	646
578.0517	626
578.17542	599
578.29913	596
578.42279	613
578.54651	616
578.67023	597
578.79388	608
578.9176	639
579.04126	618
579.16498	617
579.28864	613
579.41235	624
579.53607	626
579.65973	627
579.78345	637
579.9071	613
580.03082	629
580.15448	627
580.2782	628
580.40186	593
580.52557	680
580.64923	663
580.77295	626
580.89661	644
581.02032	649
581.14398	636
581.2677	687
581.39136	615
581.51501	658
581.63873	669
581.76239	626
581.88611	636
582.00977	603
582.13342	617
582.25714	627
582.3808	645
582.50452	695
582.62817	664
582.75183	659
582.87555	639
582.99921	629
583.12286	620
583.24652	632
583.37024	623
583.4939	632
583.61755	651
583.74127	650
583.86493	633
583.98859	619
584.11224	627
584.23596	644
584.35962	667
584.48328	650
584.60693	667
584.73059	681
584.85431	690
584.97797	661
585.10162	634
585.22528	645
585.34894	661
585.4726	646
585.59625	600
585.71997	648
585.84363	687
585.96729	620
586.09094	644
586.2146	666
586.33826	680
586.46191	656
586.58557	646
586.70923	632
586.83289	681
586.95654	673
587.0802	664
587.20386	661
587.32751	659
587.45117	663
587.57483	658
587.69849	635
587.82214	649
587.9458	642
588.06946	637
588.19312	648
588.31671	675
588.44037	601
588.56403	612
588.68768	623
588.81134	623
588.935	602
589.05865	614
589.18225	654
589.30591	661
589.42957	611
589.55322	646
589.67688	658
589.80048	676
589.92413	669
590.04779	653
590.17139	690
590.29504	697
590.4187	652
590.54236	679
590.66595	665
590.78961	697
590.91327	693
591.03687	679
591.16052	667
591.28412	678
591.40778	731
591.53143	661
591.65503	664
591.77869	689
591.90228	658
592.02594	712
592.14954	649
592.27319	697
592.39679	663
592.52045	665
592.64404	617
592.7677	707
592.8913	686
593.01495	700
593.13855	652
593.26221	708
593.3858	688
593.5094	632
593.63306	674
593.75665	679
593.88031	617
594.00391	644
594.1275	643
594.2511	635
594.37476	621
594.49835	631
594.62195	622
594.74561	689
594.8692	649
594.9928	660
595.11639	672
595.24005	633
595.36365	647
595.48724	655
595.61084	694
595.73444	661
595.85803	674
595.98163	713
596.10529	734
596.22888	734
596.35248	705
596.47607	749
596.59967	757
596.72327	779
596.84686	807
596.97046	846
597.09406	847
597.21765	935
597.34125	945
597.46484	916
597.58844	912
597.71204	982
597.83563	940
597.95923	900
598.08282	845
598.20636	885
598.32996	887
598.45355	901
598.57715	844
598.70074	783
598.82434	793
598.94788	772
599.07147	805
599.19507	795
599.31866	744
599.4422	742
599.5658	703
599.68939	757
599.81293	766
599.93652	703
600.06012	749
600.18365	708
600.30725	735
600.43085	758
600.55438	726
600.67798	742
600.80151	720
600.92511	729
601.04865	701
601.17224	754
601.29578	656
601.41937	737
601.54291	730
601.6665	722
601.79004	724
601.91364	730
602.03717	711
602.16071	700
602.2843	721
602.40784	688
602.53137	681
602.65497	688
602.7785	716
602.90204	666
603.02563	714
603.14917	706
603.27271	678
603.39624	711
603.51984	757
603.64337	726
603.76691	692
603.89044	739
604.01398	723
604.13751	674
604.26111	721
604.38464	681
604.50818	696
604.63171	695
604.75525	708
604.87878	690
605.00232	739
605.12585	691
605.24939	707
605.37292	767
605.49646	733
605.62	741
605.74353	764
605.867	720
605.99054	777
606.11407	753
606.23761	777
606.36115	827
606.48468	862
606.60815	795
606.73169	868
606.85522	871
606.97876	887
607.10223	939
607.22577	1017
607.3493	995
607.47278	1146
607.59631	1179
607.71985	1272
607.84332	1301
607.96686	1346
608.09033	1388
608.21387	1472
608.3374	1427
608.46088	1354
608.58441	1372
608.70789	1310
608.83142	1239
608.9549	1150
609.07837	1048
609.2019	1084
609.32538	994
609.44891	1046
609.57239	995
609.69586	895
609.8194	945
609.94287	888
610.06635	875
610.18982	846
610.31335	844
610.43683	856
610.5603	823
610.68378	801
610.80725	778
610.93079	824
611.05426	786
611.17773	811
611.30121	799
611.42468	774
611.54816	738
611.67163	784
611.7951	800
611.91858	783
612.04205	728
612.16553	799
612.289	775
612.41248	768
612.53595	745
612.65942	764
612.7829	751
612.90631	743
613.02979	734
613.15326	705
613.27673	744
613.40021	741
613.52362	726
613.64709	806
613.77057	746
613.89398	717
614.01746	712
614.14093	674
614.26434	706
614.38782	739
614.51123	741
614.6347	732
614.75818	723
614.88159	745
615.00507	771
615.12848	708
615.25189	716
615.37537	723
615.49878	745
615.62225	733
615.74567	728
615.86908	699
615.99255	760
616.11597	688
616.23938	741
616.36285	739
616.48627	701
616.60968	723
616.73309	718
616.85657	735
616.97998	737
617.10339	718
617.22681	718
617.35022	726
617.47363	748
617.59705	717
617.72046	746
617.84387	749
617.96729	694
618.0907	705
618.21411	712
618.33752	710
618.46094	735
618.58435	747
618.70776	769
618.83118	736
618.95453	712
619.07794	701
619.20135	740
619.32477	752
619.44812	760
619.57153	742
619.69495	725
619.8183	696
619.94171	746
620.06512	747
620.18848	699
620.31189	727
620.43524	662
620.55865	688
620.68207	724
620.80542	681
620.92877	703
621.05219	718
621.17554	693
621.29895	718
621.4223	669
621.54565	682
621.66907	735
621.79242	681
621.91577	692
622.03918	717
622.16254	703
622.28589	710
622.40924	698
622.53259	707
622.65601	724
622.77936	712
622.90271	685
623.02606	707
623.14941	696
623.27277	697
623.39612	703
623.51947	701
623.64282	678
623.76617	725
623.88953	686
624.01288	773
624.13617	668
624.25952	696
624.38287	719
624.50623	705
624.62958	719
624.75287	708
624.87622	654
624.99957	670
625.12286	696
625.24622	693
625.36957	662
625.49286	760
625.61621	694
625.7395	657
625.86285	746
625.98615	696
626.1095	719
626.23279	688
626.35614	671
626.47943	729
626.60278	706
626.72607	678
626.84937	730
626.97272	726
627.09601	671
627.2193	692
627.34259	718
627.46594	644
627.58923	681
627.71252	651
627.83582	639
627.95911	669
628.0824	662
628.20569	681
628.32898	701
628.45227	624
628.57556	715
628.69885	683
628.82214	639
628.94543	692
629.06873	652
629.19202	655
629.31531	664
629.43854	712
629.56183	682
629.68512	666
629.80841	680
629.93164	731
630.05493	675
630.17822	686
630.30145	695
630.42474	659
630.54797	655
630.67126	651
630.79449	650
630.91779	650
631.04102	690
631.16431	645
631.28754	680
631.41083	655
631.53406	676
631.65729	662
631.78058	688
631.90381	632
632.02704	660
632.15027	714
632.27356	678
632.39679	677
632.52002	659
632.64325	687
632.76648	663
632.88971	676
633.01294	699
633.13617	711
633.2594	652
633.38263	708
633.50586	674
633.62909	692
633.75232	697
633.87555	673
633.99878	670
634.12195	675
634.24518	653
634.36841	655
634.49164	664
634.61481	677
634.73804	718
634.86127	661
634.98444	706
635.10767	709
635.23083	659
635.35406	693
635.47723	744
635.60046	705
635.72363	659
635.84686	668
635.97003	675
636.0932	640
636.21643	670
636.3396	657
636.46277	631
636.58594	666
636.70917	701
636.83234	648
636.95551	697
637.07867	699
637.20184	705
637.32501	694
637.44818	620
637.57135	679
637.69452	655
637.81769	630
637.94086	696
638.06403	616
638.18719	668
638.31036	670
638.43353	615
638.55664	695
638.67981	645
638.80298	657
638.92615	609
639.04926	680
639.17242	710
639.29553	663
639.4187	615
639.54187	680
639.66498	680
639.78815	687
639.91125	684
640.03436	684
640.15753	639
640.28064	640
640.40381	653
640.52692	679
640.65002	687
640.77313	678
640.8963	648
641.01941	654
641.14252	657
641.26562	649
641.38873	645
641.51184	630
641.63495	640
641.75806	634
641.88116	639
642.00427	667
642.12738	636
642.25049	673
642.3736	682
642.4967	672
642.61981	643
642.74286	650
642.86597	719
642.98907	651
643.11218	651
643.23523	662
643.35834	654
643.48138	642
643.60449	667
643.7276	632
643.85065	685
643.97369	643
644.0968	658
644.21985	647
644.34296	644
644.466	664
644.58905	692
644.71216	662
644.83521	661
644.95825	650
645.0813	682
645.20435	715
645.32745	700
645.4505	683
645.57355	691
645.69659	775
645.81964	702
645.94269	735
646.06573	745
646.18878	747
646.31177	740
646.43481	716
646.55786	762
646.68091	775
646.80396	740
646.92694	782
647.04999	767
647.17303	764
647.29602	770
647.41907	785
647.54205	767
647.6651	754
647.78809	754
647.91113	739
648.03412	724
648.15717	743
648.28015	765
648.40314	738
648.52618	766
648.64917	752
648.77216	701
648.89514	732
649.01819	690
649.14117	665
649.26416	667
649.38715	682
649.51013	718
649.63312	695
649.7561	729
649.87909	657
650.00208	710
650.12506	686
650.24799	671
650.37097	702
650.49396	678
650.61694	633
650.73987	651
650.86285	667
650.98584	641
651.10876	656
651.23175	639
651.35474	636
651.47766	651
651.60059	678
651.72357	654
651.8465	651
651.96948	638
652.09241	660
652.21533	632
652.33832	684
652.46124	674
652.58417	651
652.70709	643
652.83002	664
652.95294	643
653.07593	626
653.19885	627
653.32178	625
653.44464	637
653.56757	637
653.69049	696
653.81342	627
653.93634	633
654.05927	645
654.18219	640
654.30505	685
654.42798	600
654.5509	618
654.67377	636
654.79669	679
654.91956	625
655.04248	655
655.16534	607
655.28827	661
655.41113	693
655.53406	661
655.65692	649
655.77979	638
655.90271	655
656.02557	669
656.14844	692
656.2713	627
656.39417	674
656.51703	693
656.63989	682
656.76276	721
656.88562	645
657.00848	667
657.13135	682
657.25421	680
657.37708	723
657.49994	693
657.6228	650
657.74561	642
657.86847	650
657.99133	628
658.11414	650
658.237	682
658.3598	709
658.48267	685
658.60547	678
658.72833	696
658.85114	656
658.974	652
659.0968	698
659.2196	662
659.34247	638
659.46527	674
659.58807	686
659.71088	687
659.83368	695
659.95648	655
660.07928	665
660.20209	665
660.32489	671
660.44769	649
660.5705	644
660.6933	637
660.8161	630
660.9389	666
661.06171	631
661.18445	682
661.30725	618
661.43005	658
661.5528	663
661.6756	664
661.79834	638
661.92114	639
662.04388	633
662.16669	638
662.28943	652
662.41217	668
662.53497	657
662.65771	667
662.78046	690
662.9032	652
663.026	685
663.14874	627
663.27148	651
663.39423	675
663.51697	642
663.63971	652
663.76245	651
663.88519	655
664.00793	641
664.13062	647
664.25336	620
664.3761	689
664.49884	679
664.62152	668
664.74426	699
664.86694	664
664.98969	628
665.11243	671
665.23511	656
665.35779	633
665.48053	671
665.60321	666
665.72589	690
665.84863	709
665.97131	685
666.09399	705
666.21667	694
666.33942	724
666.4621	701
666.58478	694
666.70746	736
666.83014	674
666.95282	664
667.07544	656
667.19812	708
667.3208	707
667.44348	692
667.56616	692
667.68878	700
667.81146	666
667.93414	657
668.05676	669
668.17944	628
668.30206	650
668.42474	642
668.54736	680
668.66998	629
668.79266	601
668.91528	681
669.0379	655
669.16058	667
669.2832	646
669.40582	616
669.52844	606
669.65106	648
669.77368	666
669.8963	642
670.01892	607
670.14154	658
670.26416	613
670.38678	614
670.50934	627
670.63196	674
670.75458	614
670.87714	621
670.99976	666
671.12238	659
671.24493	684
671.36755	675
671.49011	646
671.61273	653
671.73529	666
671.85785	747
671.98047	682
672.10303	731
672.22559	659
672.34814	687
672.4707	637
672.59326	654
672.71582	627
672.83838	620
672.96094	626
673.0835	645
673.20605	647
673.32861	620
673.45117	610
673.57373	604
673.69623	608
673.81879	612
673.94135	634
674.06384	633
674.1864	654
674.3089	633
674.43146	619
674.55396	585
674.67651	605
674.79901	595
674.92151	591
675.04401	631
675.16656	595
675.28906	607
675.41156	560
675.53406	589
675.65656	580
675.77905	623
675.90155	576
676.02405	637
676.14655	582
676.26904	602
676.39154	615
676.51398	592
676.63647	571
676.75897	577
676.88141	552
677.00391	573
677.12634	561
677.24884	542
677.37128	609
677.49377	550
677.61621	540
677.73865	537
677.86115	593
677.98358	584
678.10602	592
678.22845	571
678.35089	539
678.47333	575
678.59576	547
678.7182	583
678.84064	577
678.96307	542
679.08551	559
679.20795	551
679.33038	566
679.45276	553
679.5752	539
679.69763	519
679.82001	570
679.94244	563
680.06482	583
680.18726	566
680.30963	555
680.43207	526
680.55444	557
680.67682	562
680.79919	537
680.92163	559
681.04401	534
681.16638	550
681.28876	550
681.41113	544
681.53351	528
681.65588	538
681.77826	499
681.90057	542
682.02295	551
682.14532	531
682.2677	534
682.39001	531
682.51239	545
682.63477	533
682.75708	578
682.87946	539
683.00177	540
683.12408	539
683.24646	518
683.36877	525
683.49109	511
683.61346	518
683.73578	530
683.85809	546
683.98041	552
684.10272	564
684.22504	524
684.34735	538
684.46967	559
684.59198	549
684.71423	549
684.83655	531
684.95886	496
685.08112	537
685.20343	506
685.32574	512
685.448	523
685.57031	551
685.69257	533
685.81488	535
685.93713	514
686.05939	523
686.18164	534
686.30396	527
686.42621	516
686.54846	567
686.67072	490
686.79297	503
686.91522	511
687.03748	566
687.15973	536
687.28198	515
687.40417	539
687.52643	527
687.64868	503
687.77094	523
687.89313	519
688.01538	509
688.13757	523
688.25983	500
688.38202	539
688.50421	510
688.62646	507
688.74866	538
688.87085	530
688.99304	528
689.1153	531
689.23749	518
689.35968	516
689.48187	488
689.60406	532
689.72626	482
689.84839	501
689.97058	522
690.09277	507
690.21497	483
690.3371	498
690.45929	485
690.58148	514
690.70361	509
690.82581	526
690.94794	475
691.07007	483
691.19226	524
691.31439	526
691.43652	518
691.55865	521
691.68085	507
691.80298	505
691.92511	505
692.04724	511
692.16937	486
692.29144	492
692.41357	484
692.53571	460
692.65784	493
692.77997	505
692.90204	505
693.02417	506
693.14624	464
693.26837	489
693.39044	475
693.51257	473
693.63464	473
693.75677	496
693.87885	470
694.00092	477
694.12299	489
694.24506	493
694.36713	447
694.4892	486
694.61127	480
694.73334	460
694.85541	457
694.97748	490
695.09955	489
695.22156	502
695.34363	516
695.4657	473
695.58771	449
695.70978	501
695.83179	469
695.95386	475
696.07587	445
696.19794	489
696.31995	458
696.44196	452
696.56396	467
696.68597	479
696.80798	484
696.93005	463
697.052	480
697.17401	471
697.29602	456
697.41803	462
697.54004	471
697.66205	478
697.784	479
697.90601	482
698.02802	449
698.14996	496
698.27197	480
698.39392	486
698.51587	450
698.63788	487
698.75983	498
698.88177	458
699.00372	462
699.12573	445
699.24768	434
699.36963	478
699.49158	448
699.61353	469
699.73541	446
699.85736	471
699.97931	476
700.10126	460
700.22314	471
700.34509	452
700.46704	452
700.58893	449
700.71088	479
700.83276	473
700.95465	437
701.0766	474
701.19849	470
701.32037	445
701.44226	454
701.56415	437
701.6861	440
701.80798	438
701.92981	441
702.0517	476
702.17358	458
702.29547	473
702.41736	499
702.53918	457
702.66107	467
702.78296	440
702.90479	463
703.02667	450
703.1485	447
703.27039	431
703.39221	456
703.51404	443
703.63586	445
703.75775	487
703.87958	452
704.0014	460
704.12323	423
704.24506	446
704.36688	444
704.48865	445
704.61047	437
704.7323	436
704.85413	439
704.97589	455
705.09772	441
705.21954	441
705.34131	442
705.46307	448
705.5849	432
705.70667	442
705.82843	443
705.95026	458
706.07202	427
706.19379	409
706.31555	459
706.43732	428
706.55908	427
706.68085	437
706.80261	421
706.92438	414
707.04608	420
707.16785	465
707.28961	429
707.41132	435
707.53308	452
707.65479	441
707.77655	431
707.89825	420
708.01996	426
708.14172	419
708.26343	417
708.38513	427
708.50684	425
708.62854	450
708.75024	426
708.87195	444
708.99365	423
709.11536	422
709.237	420
709.3587	423
709.48041	447
709.60205	397
709.72375	427
709.8454	482
709.9671	393
710.08875	431
710.21045	451
710.33209	452
710.45374	440
710.57538	422
710.69702	411
710.81873	424
710.94037	379
711.06195	426
711.18359	439
711.30524	430
711.42688	424
711.54852	413
711.6701	404
711.79175	420
711.91339	404
712.03497	418
712.15662	439
712.2782	430
712.39978	419
712.52142	402
712.64301	439
712.76459	405
712.88617	400
713.00775	425
713.12933	455
713.25092	407
713.3725	443
713.49408	418
713.61566	420
713.73718	406
713.85876	422
713.98035	410
714.10187	413
714.22345	423
714.34497	410
714.46655	427
714.58807	413
714.70959	410
714.83118	424
714.9527	434
715.07422	423
715.19574	387
715.31726	422
715.43878	425
715.5603	445
715.68182	424
715.80328	438
715.9248	425
716.04633	417
716.16779	426
716.28931	437
716.41077	418
716.53229	400
716.65375	387
716.77521	415
716.89673	404
717.01819	446
717.13965	452
717.26111	440
717.38257	428
717.50403	449
717.62549	411
717.74695	419
717.86841	393
717.98987	423
718.11127	416
718.23273	424
718.35413	424
718.47559	425
718.59698	408
718.71844	399
718.83984	410
718.96124	413
719.0827	415
719.2041	419
719.3255	427
719.4469	429
719.5683	409
719.6897	404
719.8111	398
719.9325	400
720.05383	424
720.17523	420
720.29663	401
720.41797	440
720.53937	403
720.66071	417
720.7821	435
720.90344	404
721.02478	416
721.14618	411
721.26752	417
721.38885	411
721.51019	402
721.63153	438
721.75287	414
721.87421	395
721.99554	382
722.11682	430
722.23816	423
722.3595	423
722.48077	393
722.60211	414
722.72339	399
722.84473	390
722.966	448
723.08728	403
723.20862	437
723.3299	391
723.45117	406
723.57245	420
723.69373	403
723.815	391
723.93628	405
724.05756	421
724.17877	415
724.30005	428
724.42133	393
724.54254	411
724.66382	414
724.78503	424
724.90631	435
725.02753	405
725.14874	406
725.26996	397
725.39124	400
725.51245	381
725.63367	413
725.75488	441
725.8761	410
725.99731	404
726.11847	403
726.23969	381
726.3609	395
726.48206	412
726.60327	401
726.72443	428
726.84564	405
726.9668	389
727.08795	399
727.20917	410
727.33032	395
727.45148	409
727.57263	400
727.69379	406
727.81494	370
727.9361	381
728.05725	389
728.17841	417
728.2995	400
728.42065	395
728.54175	410
728.6629	393
728.784	407
728.90515	379
729.02625	406
729.14734	414
729.26849	405
729.38959	379
729.51068	403
729.63177	384
729.75287	388
729.87396	380
729.99506	399
730.11609	401
730.23718	381
730.35828	360
730.47931	398
730.6004	386
730.72144	366
730.84253	393
730.96356	386
731.08459	382
731.20569	383
731.32672	379
731.44775	373
731.56879	403
731.68982	382
731.81085	388
731.93188	367
732.05286	374
732.17389	380
732.29492	397
732.41589	400
732.53693	406
732.6579	384
732.77893	369
732.8999	386
733.02087	392
733.14191	391
733.26288	359
733.38385	366
733.50482	392
733.62579	358
733.74677	369
733.86774	397
733.98865	382
734.10962	376
734.23059	354
734.3515	357
734.47247	375
734.59338	378
734.71436	386
734.83527	373
734.95618	367
735.07709	372
735.19806	382
735.31897	384
735.43988	364
735.56079	379
735.68164	391
735.80255	367
735.92346	363
736.04437	389
736.16522	374
736.28613	383
736.40698	368
736.52789	347
736.64874	365
736.76959	353
736.8905	360
737.01135	374
737.1322	356
737.25305	368
737.3739	358
737.49475	364
737.6156	372
737.73645	362
737.85724	373
737.97809	383
738.09894	372
738.21973	378
738.34058	368
738.46136	385
738.58215	372
738.703	375
738.82379	377
738.94458	382
739.06537	396
739.18616	402
739.30695	377
739.42773	383
739.54852	398
739.66925	386
739.79004	383
739.91083	381
740.03156	388
740.15234	378
740.27307	388
740.39386	364
740.51459	381
740.63531	331
740.75604	362
740.87677	366
740.9975	384
741.11823	381
741.23895	386
741.35968	365
741.48041	366
741.60107	366
741.7218	350
741.84253	351
741.9632	366
742.08392	358
742.20459	379
742.32526	359
742.44592	352
742.56665	371
742.68732	363
742.80798	373
742.92865	383
743.04932	364
743.16992	359
743.29059	355
743.41125	349
743.53192	355
743.65253	353
743.77319	370
743.8938	338
744.0144	358
744.13507	341
744.25568	380
744.37628	338
744.49689	344
744.61749	358
744.7381	351
744.8587	361
744.97931	364
745.09991	341
745.22046	350
745.34106	347
745.46167	380
745.58221	346
745.70276	362
745.82336	364
745.94391	354
746.06445	359
746.185	357
746.3056	397
746.42615	354
746.54669	385
746.66718	350
746.78772	355
746.90826	350
747.02881	339
747.14929	361
747.26984	356
747.39032	359
747.51086	361
747.63135	339
747.75183	339
747.87231	358
747.99286	367
748.11334	365
748.23383	348
748.35431	365
748.47473	356
748.59521	351
748.7157	351
748.83618	345
